File: sample_xrd.csv
2theta,intensity
10.0,100.234
10.4,100.543
10.8,99.987
11.2,101.234
11.6,99.654
12.0,101.098
12.4,99.876
12.8,101.234
13.2,99.654
13.6,101.098
14.0,99.876
14.4,101.234
14.8,99.654
15.2,101.098
15.6,99.876
16.0,101.234
16.4,99.654
16.8,101.098
17.2,99.876
17.6,101.234
18.0,99.654
18.4,101.098
18.8,99.876
19.2,101.234
19.6,99.654
20.0,500.098
20.4,800.876
20.8,800.234
21.2,400.654
21.6,100.098
22.0,100.876
22.4,100.234
22.8,100.654
23.2,100.098
23.6,100.876
24.0,100.234
24.4,100.654
24.8,100.098
25.2,100.876
25.6,100.234
26.0,100.654
26.4,100.098
26.8,100.876
27.2,100.234
27.6,100.654
28.0,100.098
28.4,100.876
28.8,100.234
29.2,100.654
29.6,100.098
30.0,300.876
30.4,600.234
30.8,600.654
31.2,200.098
31.6,99.876
32.0,101.234
32.4,99.654
32.8,101.098
33.2,99.876
33.6,101.234
34.0,99.654
34.4,101.098
34.8,99.876
35.2,101.234
35.6,99.654
36.0,101.098
36.4,99.876
36.8,101.234
37.2,99.654
37.6,101.098
38.0,99.876
38.4,101.234
38.8,99.654
39.2,101.098
39.6,99.876
40.0,101.234
40.4,99.654
40.8,101.098
41.2,99.876
41.6,101.234
42.0,99.654
42.4,101.098
42.8,99.876
43.2,101.234
43.6,99.654
44.0,101.098
44.4,99.876
44.8,101.234
45.2,600.654
45.6,1000.098
46.0,600.876
46.4,200.234
46.8,99.654
47.2,101.098
47.6,99.876
48.0,101.234
48.4,99.654
48.8,101.098
49.2,99.876
49.6,101.234
50.0,99.654
50.4,101.098
50.8,99.876
51.2,101.234
51.6,99.654
52.0,101.098
52.4,99.876
52.8,101.234
53.2,99.654
53.6,101.098
54.0,99.876
54.4,101.234
54.8,99.654
55.2,101.098
55.6,99.876
56.0,101.234
56.4,99.654
56.8,101.098
57.2,99.876
57.6,101.234
58.0,99.654
58.4,101.098
58.8,99.876
59.2,101.234
59.6,99.654
60.0,300.098
60.4,600.876
60.8,600.234
61.2,200.654
61.6,99.098
62.0,101.876
62.4,99.234
62.8,101.654
63.2,99.098
63.6,101.876
64.0,99.234
64.4,101.654
64.8,99.098
65.2,101.876
65.6,99.234
66.0,101.654
66.4,99.098
66.8,101.876
67.2,99.234
67.6,101.654
68.0,99.098
68.4,101.876
68.8,99.234
69.2,101.654
69.6,99.098
70.0,101.876
70.4,99.234
70.8,101.654
71.2,99.098
71.6,101.876
72.0,99.234
72.4,101.654
72.8,99.098
73.2,101.876
73.6,99.234
74.0,101.654
74.4,99.098
74.8,101.876
75.2,600.234
75.6,1000.654
76.0,600.098
76.4,200.876
76.8,99.234
77.2,101.654
77.6,99.098
78.0,101.876
78.4,99.234
78.8,101.654
79.2,99.098
79.6,101.876
80.0,99.234
80.4,101.654
80.8,99.098
81.2,101.876
81.6,99.234
82.0,101.654
82.4,99.098
82.8,101.876
83.2,99.234
83.6,101.654
84.0,99.098
84.4,101.876
84.8,99.234
85.2,101.654
85.6,99.098
86.0,101.876
86.4,99.234
86.8,101.654
87.2,99.098
87.6,101.876
88.0,99.234
88.4,101.654
88.8,99.098
89.2,101.876
89.6,99.234
90.0,101.654